# This spectrum is from P60 SEDM, a ZTF instrument. This spectrum was obtained from TNS. I can't confirm if this spectrum is fully reduced because it's a ZTF spectrum, but it's the best we have.
3776.7 1.240e-15 5.478e-34
3802.3 1.359e-15 7.304e-33
3827.9 1.240e-15 3.365e-33
3853.4 1.196e-15 3.109e-33
3879.0 1.194e-15 2.753e-33
3904.6 1.059e-15 3.363e-33
3930.1 1.090e-15 2.046e-32
3955.7 1.092e-15 1.325e-32
3981.3 1.155e-15 1.294e-32
4006.8 1.072e-15 1.060e-32
4032.4 9.817e-16 1.802e-33
4058.0 9.779e-16 1.007e-32
4083.6 9.202e-16 8.154e-33
4109.1 9.871e-16 9.526e-33
4134.7 1.004e-15 6.201e-33
4160.3 9.920e-16 8.816e-33
4185.8 9.842e-16 8.012e-33
4211.4 9.713e-16 1.152e-33
4237.0 1.032e-15 6.008e-33
4262.6 8.670e-16 5.430e-33
4288.1 9.417e-16 5.573e-33
4313.7 8.904e-16 4.723e-33
4339.3 8.781e-16 5.814e-33
4364.8 9.386e-16 6.194e-33
4390.4 8.149e-16 4.303e-33
4416.0 7.944e-16 5.534e-33
4441.6 8.159e-16 4.014e-33
4467.1 8.248e-16 4.651e-33
4492.7 8.314e-16 3.790e-33
4518.3 8.375e-16 4.531e-33
4543.8 7.783e-16 3.955e-33
4569.4 8.493e-16 1.328e-33
4595.0 7.252e-16 3.483e-33
4620.5 6.886e-16 3.356e-33
4646.1 7.565e-16 3.217e-33
4671.7 8.333e-16 3.848e-33
4697.3 8.293e-16 3.339e-33
4722.8 8.361e-16 2.304e-33
4748.4 7.150e-16 3.001e-33
4774.0 7.319e-16 2.670e-33
4799.5 7.019e-16 2.836e-33
4825.1 6.818e-16 2.562e-33
4850.7 6.713e-16 2.640e-33
4876.3 6.478e-16 2.058e-33
4901.8 6.105e-16 2.334e-33
4927.4 6.441e-16 2.369e-33
4953.0 5.803e-16 2.030e-33
4978.5 5.530e-16 2.102e-33
5004.1 5.786e-16 1.385e-33
5029.7 5.670e-16 1.519e-33
5055.3 5.038e-16 1.464e-33
5080.8 4.982e-16 1.286e-33
5106.4 4.778e-16 1.182e-33
5132.0 5.164e-16 1.072e-33
5157.5 4.764e-16 1.416e-33
5183.1 4.809e-16 9.435e-34
5208.7 4.650e-16 7.572e-34
5234.2 4.682e-16 1.217e-33
5259.8 4.486e-16 1.043e-33
5285.4 4.268e-16 1.068e-33
5311.0 4.030e-16 8.457e-34
5336.5 4.413e-16 8.249e-34
5362.1 3.823e-16 8.496e-34
5387.7 4.065e-16 9.589e-34
5413.2 4.045e-16 1.025e-33
5438.8 4.182e-16 9.977e-34
5464.4 3.907e-16 6.984e-34
5490.0 3.681e-16 7.444e-34
5515.5 3.560e-16 7.402e-34
5541.1 3.717e-16 8.670e-34
5566.7 3.221e-16 1.379e-34
5592.2 3.482e-16 1.048e-33
5617.8 3.718e-16 1.405e-33
5643.4 3.714e-16 4.275e-34
5668.9 3.859e-16 4.686e-34
5694.5 3.566e-16 5.671e-34
5720.1 3.476e-16 5.322e-34
5745.7 3.306e-16 4.686e-34
5771.2 3.124e-16 3.137e-34
5796.8 3.713e-16 5.372e-34
5822.4 4.173e-16 4.596e-34
5847.9 4.817e-16 3.398e-34
5873.5 4.364e-16 4.338e-34
5899.1 4.246e-16 4.216e-34
5924.7 4.047e-16 4.630e-34
5950.2 3.558e-16 3.988e-34
5975.8 3.134e-16 3.359e-34
6001.4 3.086e-16 4.082e-34
6026.9 2.883e-16 2.858e-34
6052.5 2.855e-16 2.600e-34
6078.1 2.702e-16 3.228e-34
6103.7 2.580e-16 3.946e-34
6129.2 2.467e-16 2.262e-34
6154.8 2.342e-16 2.535e-34
6180.4 2.452e-16 2.566e-34
6205.9 2.407e-16 2.691e-34
6231.5 2.265e-16 2.217e-34
6257.1 2.256e-16 2.950e-34
6282.6 2.352e-16 2.780e-34
6308.2 2.361e-16 2.519e-34
6333.8 2.210e-16 3.448e-34
6359.4 2.054e-16 2.430e-34
6384.9 2.151e-16 3.127e-34
6410.5 2.070e-16 2.005e-34
6436.1 2.014e-16 2.416e-34
6461.6 2.124e-16 2.209e-34
6487.2 1.885e-16 1.884e-34
6512.8 1.974e-16 2.313e-34
6538.4 2.002e-16 1.650e-34
6563.9 1.858e-16 1.535e-34
6589.5 1.894e-16 2.202e-34
6615.1 1.850e-16 2.084e-34
6640.6 1.850e-16 1.859e-34
6666.2 1.726e-16 1.680e-34
6691.8 1.716e-16 2.625e-35
6717.4 1.737e-16 1.448e-34
6742.9 1.631e-16 2.546e-35
6768.5 1.617e-16 1.351e-34
6794.1 1.749e-16 1.613e-34
6819.6 1.614e-16 1.428e-34
6845.2 1.560e-16 3.259e-35
6870.8 1.545e-16 2.755e-35
6896.3 1.574e-16 1.236e-34
6921.9 1.491e-16 1.564e-34
6947.5 1.438e-16 1.286e-34
6973.1 1.466e-16 2.351e-35
6998.6 1.555e-16 1.697e-34
7024.2 1.618e-16 1.278e-34
7049.8 1.467e-16 2.088e-35
7075.3 1.426e-16 2.236e-35
7100.9 1.386e-16 1.426e-34
7126.5 1.375e-16 1.467e-34
7152.1 1.353e-16 7.254e-35
7177.6 1.287e-16 2.239e-35
7203.2 1.240e-16 2.089e-35
7228.8 1.254e-16 3.286e-35
7254.3 1.242e-16 1.285e-34
7279.9 1.271e-16 1.393e-34
7305.5 1.153e-16 1.262e-34
7331.1 1.179e-16 2.164e-35
7356.6 1.145e-16 2.444e-35
7382.2 1.111e-16 2.413e-35
7407.8 1.232e-16 1.397e-34
7433.3 1.280e-16 1.378e-34
7458.9 1.245e-16 8.732e-35
7484.5 1.094e-16 2.117e-35
7510.0 1.128e-16 1.213e-34
7535.6 1.083e-16 2.887e-35
7561.2 1.084e-16 2.908e-35
7586.8 1.087e-16 2.825e-35
7612.3 1.028e-16 2.464e-35
7637.9 9.680e-17 2.302e-35
7663.5 1.035e-16 1.664e-34
7689.0 1.118e-16 2.267e-34
7714.6 1.085e-16 1.702e-34
7740.2 1.021e-16 2.407e-35
7765.8 1.008e-16 2.164e-35
7791.3 1.080e-16 1.275e-34
7816.9 1.089e-16 1.331e-34
7842.5 1.017e-16 1.504e-34
7868.0 1.114e-16 1.263e-34
7893.6 1.005e-16 1.368e-34
7919.2 9.426e-17 1.062e-34
7944.7 9.689e-17 1.151e-34
7970.3 9.406e-17 1.255e-34
7995.9 8.883e-17 1.055e-34
8021.5 8.583e-17 2.516e-35
8047.0 8.598e-17 1.856e-35
8072.6 7.949e-17 2.231e-35
8098.2 8.550e-17 1.132e-34
8123.7 8.104e-17 9.027e-35
8149.3 8.195e-17 1.117e-34
8174.9 7.716e-17 1.847e-35
8200.5 7.580e-17 1.237e-34
8226.0 7.849e-17 1.541e-34
8251.6 7.283e-17 2.780e-35
8277.2 7.084e-17 2.800e-35
8302.7 7.145e-17 2.382e-34
8328.3 8.016e-17 5.051e-35
8353.9 8.677e-17 2.265e-34
8379.5 8.230e-17 2.080e-34
8405.0 7.822e-17 1.689e-34
8430.6 7.332e-17 1.449e-34
8456.2 6.788e-17 2.088e-35
8481.7 6.718e-17 2.527e-35
8507.3 6.270e-17 2.406e-35
8532.9 6.053e-17 1.951e-35
8558.4 6.151e-17 2.475e-35
8584.0 6.034e-17 2.979e-35
8609.6 5.955e-17 3.620e-35
8635.2 6.466e-17 2.068e-34
8660.7 6.893e-17 2.014e-34
8686.3 7.043e-17 1.337e-34
8711.9 6.962e-17 1.156e-34
8737.4 6.721e-17 2.179e-34
8763.0 6.598e-17 4.756e-34
8788.6 6.803e-17 9.575e-35
8814.2 7.035e-17 7.273e-35
8839.7 7.312e-17 4.883e-35
8865.3 7.246e-17 4.683e-35
8890.9 6.952e-17 4.017e-35
8916.4 6.715e-17 4.208e-35
8942.0 5.480e-17 3.405e-35
8967.6 6.008e-17 2.172e-34
8993.2 5.224e-17 2.285e-34
9018.7 4.796e-17 3.254e-35
9044.3 4.747e-17 2.999e-35
9069.9 4.897e-17 3.121e-35
9095.4 4.709e-17 3.328e-35
9121.0 4.442e-17 4.418e-35
9146.6 4.751e-17 2.418e-34
9172.1 5.304e-17 2.328e-34
9197.7 4.702e-17 2.018e-34
9223.3 4.460e-17 3.691e-35
